(time) (Energy) (Kinetic Energy) (Potential Energy) (Pressure) (Temperature) 
0 -9705.71 7785.29 -17491 2.74871 2.53428 0 
0.005 -9701.12 7700.96 -17402.1 2.62272 2.50682 0.000189731 
0.01 -9732.78 7470.85 -17203.6 3.10496 2.43192 0.000714433 
0.015 -9688.69 7192.83 -16881.5 3.91097 2.34142 0.00152696 
0.02 -9604.14 6833.95 -16438.1 5.01135 2.22459 0.0025782 
0.025 -9529.89 6368.02 -15897.9 6.31833 2.07292 0.00378229 
0.03 -9397.35 5904.94 -15302.3 7.75793 1.92218 0.0050655 
0.035 -9180.74 5527.04 -14707.8 9.21127 1.79917 0.00636453 
0.04 -8931.81 5218.37 -14150.2 10.5827 1.69869 0.00763175 
0.045 -8575.11 5113.89 -13689 11.771 1.66468 0.00883245 
0.05 -8401.77 4928.27 -13330 12.6648 1.60425 0.00994748 
0.055 -8133.96 4943.68 -13077.6 13.3495 1.60927 0.010946 
0.06 -7902.73 5014.77 -12917.5 13.8126 1.63241 0.0118376 
0.065 -7714.87 5133.32 -12848.2 14.0549 1.671 0.0126006 
0.07 -7497.57 5324.94 -12822.5 14.2071 1.73338 0.013273 
0.075 -7328.86 5489.27 -12818.1 14.289 1.78687 0.0138733 
0.08 -7060.81 5742.31 -12803.1 14.4245 1.86924 0.0144375 
0.085 -6831.58 5956.47 -12788 14.5422 1.93895 0.0149581 
0.09 -6667.87 6097.73 -12765.6 14.6497 1.98494 0.0154214 
0.095 -6528.7 6188.69 -12717.4 14.8027 2.01455 0.0158808 
0.1 -6385.82 6265.34 -12651.2 14.9929 2.0395 0.0163156 
0.105 -6308.79 6253.56 -12562.4 15.2075 2.03567 0.0167571 
0.11 -6105.95 6350.35 -12456.3 15.506 2.06717 0.0172066 
0.115 -6037.59 6346.19 -12383.8 15.6862 2.06582 0.0176365 
0.12 -5924.99 6413.38 -12338.4 15.8264 2.08769 0.0180603 
0.125 -5812.14 6489.22 -12301.4 15.9493 2.11238 0.0184642 
0.13 -5555.12 6721.8 -12276.9 16.0979 2.18809 0.0188674 
0.135 -5352.56 6888.53 -12241.1 16.2532 2.24236 0.0192836 
0.14 -5256.85 6947.2 -12204 16.374 2.26146 0.0196816 
0.145 -5157.14 7023.83 -12181 16.4681 2.2864 0.0200698 
0.15 -5159.31 6996.42 -12155.7 16.5285 2.27748 0.0204481 
0.155 -5114.39 7003.52 -12117.9 16.6314 2.27979 0.0208025 
0.16 -5076.85 6980.72 -12057.6 16.7793 2.27237 0.0211519 
0.165 -4810.43 7177.1 -11987.5 17.0281 2.3363 0.0215241 
0.17 -4744.03 7184.69 -11928.7 17.1818 2.33877 0.0219079 
0.175 -4624.37 7273.03 -11897.4 17.2968 2.36752 0.0222788 
0.18 -4592.52 7262.57 -11855.1 17.4064 2.36412 0.0226747 
0.185 -4584.53 7218.08 -11802.6 17.5299 2.34964 0.0230882 
0.19 -4606.59 7107.98 -11714.6 17.7192 2.31379 0.023527 
0.195 -4536.03 7075.92 -11612 17.9695 2.30336 0.0239705 
0.2 -4448.13 7048.99 -11497.1 18.249 2.29459 0.0244082 
0.205 -4370.8 7038.22 -11409 18.4693 2.29109 0.024784 
0.21 -4252.15 7091.39 -11343.5 18.6613 2.30839 0.0251416 
0.215 -4198.14 7102.76 -11300.9 18.7794 2.3121 0.025465 
0.22 -4110.9 7157.61 -11268.5 18.8869 2.32995 0.0257899 
0.225 -3991.04 7283.92 -11275 18.9203 2.37107 0.026025 
0.23 -3971.68 7308.45 -11280.1 18.9189 2.37905 0.0262539 
0.235 -3834.04 7437.77 -11271.8 18.9853 2.42115 0.0264861 
0.24 -3783.02 7502.3 -11285.3 18.9722 2.44216 0.0266807 
0.245 -3698.01 7589.71 -11287.7 18.9969 2.47061 0.0268852 
0.25 -3638.24 7653.46 -11291.7 19.01 2.49136 0.0270639 
0.255 -3680.41 7587.02 -11267.4 19.0464 2.46973 0.0272613 
0.26 -3719.98 7514.08 -11234.1 19.102 2.44599 0.0274293 
0.265 -3766.45 7415.73 -11182.2 19.1989 2.41397 0.0276321 
0.27 -3798.69 7327.15 -11125.8 19.3082 2.38514 0.0278076 
0.275 -3652.8 7412 -11064.8 19.4872 2.41276 0.0279746 
0.28 -3693.93 7343.88 -11037.8 19.5289 2.39059 0.0281215 
0.285 -3664.47 7361.07 -11025.5 19.5684 2.39618 0.028274 
0.29 -3484.87 7560 -11044.9 19.597 2.46094 0.0284312 
0.295 -3607.1 7455.85 -11063 19.5181 2.42704 0.0285513 
0.3 -3571.14 7499.87 -11071 19.5126 2.44136 0.0286452 
0.305 -3526.05 7545.63 -11071.7 19.5277 2.45626 0.0287574 
0.31 -3461.45 7628.57 -11090 19.5061 2.48326 0.0288438 
0.315 -3336.23 7779.15 -11115.4 19.4981 2.53228 0.0289515 
0.32 -3265.47 7876.39 -11141.9 19.4704 2.56393 0.0290559 
0.325 -3214.88 7943.57 -11158.4 19.4552 2.5858 0.0291657 
0.33 -3170.22 7988.47 -11158.7 19.4727 2.60041 0.0293308 
0.335 -3215.43 7912.53 -11128 19.5223 2.57569 0.0294872 
0.34 -3283.85 7786.36 -11070.2 19.625 2.53462 0.0296693 
0.345 -3322.13 7682.46 -11004.6 19.7537 2.5008 0.0298533 
0.35 -3418.05 7530.64 -10948.7 19.8433 2.45138 0.0300472 
0.355 -3438.8 7475.65 -10914.5 19.9148 2.43348 0.0302016 
0.36 -3369.7 7547.81 -10917.5 19.9405 2.45697 0.0302899 
0.365 -3328.76 7604.77 -10933.5 19.9296 2.47551 0.0303413 
0.37 -3364.55 7577.93 -10942.5 19.906 2.46678 0.0304149 
0.375 -3264.83 7660.8 -10925.6 19.9798 2.49375 0.030493 
0.38 -3218.66 7672.92 -10891.6 20.0698 2.4977 0.0305864 
0.385 -3286.74 7549.02 -10835.8 20.1647 2.45736 0.0307051 
0.39 -3293.58 7509.04 -10802.6 20.2354 2.44435 0.0308116 
0.395 -3219.37 7584.78 -10804.1 20.2627 2.469 0.0308972 
0.4 -3209.42 7602.98 -10812.4 20.2524 2.47493 0.0309813 
0.405 -3263.93 7571.13 -10835.1 20.1905 2.46456 0.0310115 
0.41 -3310.62 7543.63 -10854.2 20.1365 2.45561 0.0310742 
0.415 -3277.6 7583.54 -10861.1 20.1383 2.4686 0.0311565 
0.42 -3283.94 7583.23 -10867.2 20.1272 2.4685 0.0312363 
0.425 -3292.65 7591.5 -10884.2 20.0915 2.47119 0.0313301 
0.43 -3390.24 7518.78 -10909 20.0076 2.44752 0.0314118 
0.435 -3320.28 7609.64 -10929.9 19.991 2.4771 0.0314825 
0.44 -3378.59 7554.25 -10932.8 19.9611 2.45907 0.0315504 
0.445 -3338.69 7564.25 -10902.9 20.0317 2.46232 0.031635 
0.45 -3392.84 7494.79 -10887.6 20.0395 2.43971 0.0316907 
0.455 -3336.07 7564.83 -10900.9 20.0245 2.46251 0.0317025 
0.46 -3264.72 7648.54 -10913.3 20.0162 2.48976 0.0317615 
0.465 -3271.84 7696.08 -10967.9 19.8931 2.50523 0.0318196 
0.47 -3248.24 7755.24 -11003.5 19.8238 2.52449 0.0319087 
0.475 -3266.15 7735.24 -11001.4 19.8197 2.51798 0.0319981 
0.48 -3268.35 7697.96 -10966.3 19.8878 2.50585 0.0321573 
0.485 -3303.31 7625.87 -10929.2 19.9454 2.48238 0.0322792 
0.49 -3330.07 7574.51 -10904.6 19.9847 2.46566 0.0323933 
0.495 -3278.92 7635.39 -10914.3 19.9803 2.48548 0.03248 
0.5 -3287.81 7622.19 -10910 19.985 2.48118 0.0325319 
0.505 -3365.53 7568.91 -10934.4 19.9061 2.46384 0.0325578 
0.51 -3340.78 7628.32 -10969.1 19.8427 2.48318 0.0325684 
0.515 -3349.2 7629.95 -10979.2 19.8211 2.48371 0.0326262 
0.52 -3403.04 7579.83 -10982.9 19.7992 2.46739 0.0326636 
0.525 -3466.17 7478.72 -10944.9 19.8617 2.43448 0.0327357 
0.53 -3289.58 7642.65 -10932.2 19.9542 2.48784 0.0327981 
0.535 -3285.06 7640.98 -10926 19.9699 2.4873 0.0328768 
0.54 -3398.88 7532.67 -10931.6 19.9183 2.45204 0.0329109 
0.545 -3447 7501.18 -10948.2 19.8647 2.44179 0.0329338 
0.55 -3446.85 7516.14 -10963 19.8314 2.44666 0.0329647 
0.555 -3443.97 7559.16 -11003.1 19.7484 2.46066 0.0329898 
0.56 -3510.06 7505.62 -11015.7 19.7009 2.44324 0.0330852 
0.565 -3540.22 7492.51 -11032.7 19.6538 2.43897 0.0331495 
0.57 -3397.94 7620.56 -11018.5 19.7349 2.48065 0.0332539 
0.575 -3425.67 7590.2 -11015.9 19.7303 2.47077 0.0333802 
0.58 -3454.19 7536.6 -10990.8 19.772 2.45332 0.0335178 
0.585 -3588.31 7387.27 -10975.6 19.7579 2.40471 0.0336568 
0.59 -3628.66 7358.8 -10987.5 19.7193 2.39544 0.033768 
0.595 -3564.44 7435.32 -10999.8 19.7154 2.42035 0.033889 
0.6 -3588.3 7422.91 -11011.2 19.68 2.41631 0.0340048 
0.605 -3441.54 7556.04 -10997.6 19.7575 2.45965 0.0341143 
0.61 -3405.83 7582.06 -10987.9 19.7848 2.46812 0.0341828 
0.615 -3472.56 7484.14 -10956.7 19.8243 2.43624 0.0342315 
0.62 -3526.86 7428.36 -10955.2 19.8054 2.41809 0.0342451 
0.625 -3457.8 7471.98 -10929.8 19.88 2.43228 0.0342887 
0.63 -3495.25 7433.99 -10929.2 19.865 2.41992 0.0342979 
0.635 -3525.09 7410.51 -10935.6 19.8385 2.41227 0.0342632 
0.64 -3608.85 7352.75 -10961.6 19.754 2.39347 0.0342502 
0.645 -3495.18 7501.21 -10996.4 19.7234 2.4418 0.034252 
0.65 -3461.85 7556.96 -11018.8 19.6915 2.45995 0.0342904 
0.655 -3335.35 7695.37 -11030.7 19.7137 2.505 0.034331 
0.66 -3369.02 7645.35 -11014.4 19.7409 2.48872 0.0343687 
0.665 -3376.68 7623.42 -11000.1 19.7723 2.48158 0.0343774 
0.67 -3331.49 7637.52 -10969 19.8559 2.48617 0.0343804 
0.675 -3325.51 7620.32 -10945.8 19.907 2.48057 0.0343617 
0.68 -3320.74 7610.66 -10931.4 19.94 2.47743 0.034336 
0.685 -3393.26 7550.84 -10944.1 19.8904 2.45795 0.0343389 
0.69 -3436.8 7529.66 -10966.5 19.8254 2.45106 0.0342846 
0.695 -3498.7 7495.74 -10994.4 19.7392 2.44002 0.0342605 
0.7 -3442.66 7597 -11039.7 19.6582 2.47298 0.0342536 
0.705 -3404.76 7685.57 -11090.3 19.5568 2.50181 0.0342362 
0.71 -3410.19 7707.23 -11117.4 19.4918 2.50886 0.0342172 
0.715 -3381.81 7740.62 -11122.4 19.4805 2.51973 0.0341932 
0.72 -3492.31 7608.93 -11101.2 19.4814 2.47686 0.0342525 
0.725 -3493.77 7572.88 -11066.7 19.5521 2.46513 0.0343518 
0.73 -3468.58 7563.53 -11032.1 19.6333 2.46209 0.03449 
0.735 -3414.58 7577.35 -10991.9 19.7354 2.46659 0.034642 
0.74 -3420.45 7544.75 -10965.2 19.7855 2.45597 0.0347681 
0.745 -3521.89 7413.4 -10935.3 19.8092 2.41322 0.0349303 
0.75 -3523.54 7391.49 -10915 19.846 2.40608 0.0350811 
0.755 -3572.92 7323.87 -10896.8 19.8684 2.38407 0.0352547 
0.76 -3495.06 7418.9 -10914 19.8619 2.41501 0.0353452 
0.765 -3438.58 7513.39 -10952 19.8059 2.44577 0.0354354 
0.77 -3402.36 7574.54 -10976.9 19.77 2.46567 0.0354856 
0.775 -3414.98 7549.64 -10964.6 19.7913 2.45757 0.0355313 
0.78 -3340.45 7584.57 -10925 19.898 2.46893 0.0355662 
0.785 -3423.04 7461.51 -10884.5 19.9518 2.42888 0.0356072 
0.79 -3433.54 7413.11 -10846.7 20.0298 2.41312 0.0356858 
0.795 -3416.63 7434.29 -10850.9 20.033 2.42002 0.0357282 
0.8 -3407.44 7465.99 -10873.4 19.9954 2.43034 0.035772 
0.805 -3391.54 7508.22 -10899.8 19.9534 2.44408 0.035802 
0.81 -3299.2 7611.83 -10911 19.9672 2.47781 0.0358456 
0.815 -3131.3 7796.7 -10928 19.996 2.53799 0.0359006 
0.82 -3070.39 7866.15 -10936.5 20.0073 2.5606 0.0360227 
0.825 -3022.16 7904.13 -10926.3 20.0497 2.57296 0.0361292 
0.83 -3027.05 7903.08 -10930.1 20.0411 2.57262 0.0362067 
0.835 -3060.21 7876.76 -10937 20.0168 2.56405 0.0362874 
0.84 -3066.72 7881.52 -10948.2 19.9918 2.5656 0.03639 
0.845 -2948.36 8006.78 -10955.1 20.0211 2.60638 0.0365499 
0.85 -3066.14 7888.59 -10954.7 19.9829 2.5679 0.036729 
0.855 -3097.02 7843.03 -10940 20.0067 2.55307 0.0369079 
0.86 -3092.06 7811.83 -10903.9 20.0885 2.54291 0.0370966 
0.865 -3070.03 7790.91 -10860.9 20.1897 2.5361 0.0373038 
0.87 -3201.99 7637.53 -10839.5 20.185 2.48617 0.0374444 
0.875 -3234.88 7594.84 -10829.7 20.1912 2.47228 0.0375656 
0.88 -3078.29 7765.57 -10843.9 20.2117 2.52785 0.0376795 
0.885 -3113.94 7744.06 -10858 20.1651 2.52085 0.0377806 
0.89 -3136.11 7728.68 -10864.8 20.1388 2.51585 0.0378669 
0.895 -3101.97 7754.83 -10856.8 20.1593 2.52436 0.0379986 
0.9 -3146.89 7677.2 -10824.1 20.2088 2.49909 0.0381201 
0.905 -3169.57 7635.47 -10805 20.2416 2.48551 0.0382597 
0.91 -3179.49 7643.76 -10823.2 20.2064 2.4882 0.038406 
0.915 -3129.19 7701.9 -10831.1 20.2166 2.50713 0.0385438 
0.92 -3097.03 7715.27 -10812.3 20.2826 2.51148 0.038707 
0.925 -3117.9 7646.79 -10764.7 20.3849 2.48919 0.0388528 
0.93 -3097.67 7606.59 -10704.3 20.5276 2.4761 0.0390289 
0.935 -3173.69 7501.07 -10674.8 20.5764 2.44175 0.0391718 
0.94 -3251.25 7418.53 -10669.8 20.5708 2.41489 0.0392536 
0.945 -3225.23 7443.25 -10668.5 20.5903 2.42293 0.0393075 
0.95 -3188.76 7484.97 -10673.7 20.5931 2.43651 0.0392808 
0.955 -3211.48 7459.44 -10670.9 20.5909 2.4282 0.0392667 
0.96 -3101.37 7584.66 -10686 20.5974 2.46896 0.0392736 
0.965 -3147.26 7560.43 -10707.7 20.538 2.46108 0.0392923 
0.97 -3029.39 7699.93 -10729.3 20.5387 2.50649 0.0392849 
0.975 -3028.76 7712.3 -10741.1 20.5184 2.51051 0.0392549 
0.98 -3087.08 7659.64 -10746.7 20.4872 2.49337 0.0392453 
0.985 -2989.23 7769.39 -10758.6 20.4956 2.5291 0.0392058 
0.99 -2863.76 7868.48 -10732.2 20.594 2.56135 0.0392113 
0.995 -2889.13 7779.31 -10668.4 20.7183 2.53233 0.0392325 
1 -2956.02 7657.06 -10613.1 20.8116 2.49253 0.0392471 
1.005 -2959.58 7619.84 -10579.4 20.8823 2.48042 0.0392125 
1.01 -2915.7 7658.18 -10573.9 20.9104 2.4929 0.0391588 
1.015 -2979.16 7597.54 -10576.7 20.8826 2.47316 0.0390723 
1.02 -2972.07 7640.06 -10612.1 20.809 2.487 0.0389559 
1.025 -3005.45 7633.11 -10638.6 20.7408 2.48474 0.0388563 
1.03 -3000.51 7666.76 -10667.3 20.6809 2.49569 0.0387785 
1.035 -2990.58 7680.84 -10671.4 20.6759 2.50027 0.0387419 
1.04 -3068.18 7586.66 -10654.8 20.6822 2.46961 0.0387077 
1.045 -3063.82 7599.58 -10663.4 20.6617 2.47382 0.0386712 
1.05 -3065.39 7635.58 -10701 20.5811 2.48554 0.0386554 
1.055 -3038.94 7697.66 -10736.6 20.5151 2.50575 0.0385921 
1.06 -3033.42 7722.77 -10756.2 20.4753 2.51392 0.0385457 
1.065 -3125.51 7641.13 -10766.6 20.4195 2.48735 0.0384934 
1.07 -3134.14 7641.82 -10776 20.3945 2.48757 0.0384539 
1.075 -3211.13 7552.52 -10763.7 20.3916 2.4585 0.0384284 
1.08 -3231.33 7511.33 -10742.7 20.4268 2.44509 0.0384407 
1.085 -3201.4 7516 -10717.4 20.4908 2.44661 0.0384825 
1.09 -3245.32 7428.37 -10673.7 20.5693 2.41809 0.0385752 
1.095 -3136.07 7507.87 -10643.9 20.675 2.44397 0.0386904 
1.1 -3080.42 7543.47 -10623.9 20.7419 2.45556 0.0388066 
1.105 -3051.46 7550.17 -10601.6 20.8038 2.45774 0.0389641 
1.11 -3034.74 7552.94 -10587.7 20.8399 2.45864 0.0391239 
1.115 -3146 7437.75 -10583.8 20.808 2.42114 0.0392342 
1.12 -3249.92 7360.7 -10610.6 20.7097 2.39606 0.0392513 
1.125 -3106.66 7566.66 -10673.3 20.6254 2.4631 0.0392424 
1.13 -3069.83 7651.49 -10721.3 20.5326 2.49072 0.0392112 
1.135 -3040.82 7694.48 -10735.3 20.5098 2.50471 0.0391897 
1.14 -3032.8 7664.32 -10697.1 20.591 2.4949 0.0392174 
1.145 -3035.55 7616.67 -10652.2 20.6817 2.47938 0.0392586 
1.15 -3015.6 7586.79 -10602.4 20.7943 2.46966 0.0393047 
1.155 -3029.79 7535.16 -10564.9 20.8701 2.45285 0.0393261 
1.16 -2964.59 7581.72 -10546.3 20.9355 2.46801 0.0393584 
1.165 -2863.49 7675.3 -10538.8 20.992 2.49847 0.0393698 
1.17 -2887.18 7654.2 -10541.4 20.9891 2.4916 0.0393881 
1.175 -2903.71 7623.66 -10527.4 21.0253 2.48166 0.0394222 
1.18 -2909.28 7594.69 -10504 21.0849 2.47223 0.03946 
1.185 -2903.83 7586.54 -10490.4 21.1237 2.46958 0.0395486 
1.19 -2753.5 7746.09 -10499.6 21.164 2.52151 0.0396171 
1.195 -2824.07 7696.78 -10520.9 21.096 2.50546 0.0396635 
1.2 -2795.68 7749.52 -10545.2 21.0523 2.52263 0.0397344 
1.205 -2771.87 7805.63 -10577.5 20.9904 2.5409 0.0398306 
1.21 -2760.87 7819.83 -10580.7 20.9873 2.54552 0.0399634 
1.215 -2795.81 7787.24 -10583 20.9668 2.53491 0.0400366 
1.22 -2888.1 7691.29 -10579.4 20.9401 2.50368 0.0401313 
1.225 -2858.35 7717.46 -10575.8 20.9545 2.51219 0.040207 
1.23 -2856.96 7701.89 -10558.9 20.989 2.50713 0.0402766 
1.235 -2864.62 7650.18 -10514.8 21.0789 2.49029 0.040404 
1.24 -2894.83 7561.57 -10456.4 21.1941 2.46145 0.0405769 
1.245 -2910.36 7489.86 -10400.2 21.3084 2.4381 0.040751 
1.25 -2887.39 7466.38 -10353.8 21.4178 2.43046 0.0409088 
1.255 -2820.02 7516.04 -10336.1 21.4834 2.44663 0.0410312 
1.26 -2880.97 7446.25 -10327.2 21.4854 2.42391 0.0411419 
1.265 -2806.22 7523.3 -10329.5 21.5085 2.44899 0.0412045 
1.27 -2804.6 7523.21 -10327.8 21.511 2.44896 0.0412403 
1.275 -2674.78 7649.62 -10324.4 21.5574 2.49011 0.0412465 
1.28 -2684.44 7633.65 -10318.1 21.558 2.48491 0.0412534 
1.285 -2698.23 7642.78 -10341 21.4918 2.48788 0.0412102 
1.29 -2728.34 7637.82 -10366.2 21.4151 2.48627 0.0411426 
1.295 -2670.71 7743.38 -10414.1 21.3253 2.52063 0.0410847 
1.3 -2596.28 7864.11 -10460.4 21.2495 2.55993 0.0410299 
1.305 -2561.48 7948.91 -10510.4 21.1526 2.58753 0.0409581 
1.31 -2605.49 7937.59 -10543.1 21.0681 2.58385 0.0409306 
1.315 -2533.41 8031.25 -10564.7 21.0472 2.61434 0.040937 
1.32 -2530.16 8047.46 -10577.6 21.0196 2.61962 0.0409432 
1.325 -2493.01 8113.74 -10606.7 20.971 2.64119 0.0409307 
1.33 -2544.86 8069.81 -10614.7 20.9368 2.62689 0.0409401 
1.335 -2560.07 8035.62 -10595.7 20.9726 2.61576 0.0409464 
1.34 -2462.07 8103.6 -10565.7 21.0703 2.63789 0.0409419 
1.345 -2481.64 8050.28 -10531.9 21.138 2.62053 0.0410282 
1.35 -2533.17 7982.95 -10516.1 21.1567 2.59862 0.0411305 
1.355 -2635.69 7870.35 -10506 21.1448 2.56196 0.0411882 
1.36 -2589.59 7914.8 -10504.4 21.1691 2.57643 0.0412949 
1.365 -2644.71 7850.95 -10495.7 21.1768 2.55565 0.0414289 
1.37 -2636.24 7854.3 -10490.5 21.1956 2.55674 0.0415042 
1.375 -2652.2 7832.22 -10484.4 21.2045 2.54955 0.0415866 
1.38 -2560.93 7932.98 -10493.9 21.2173 2.58235 0.0416122 
1.385 -2599.36 7871.36 -10470.7 21.2535 2.56229 0.0416771 
1.39 -2643.35 7799.25 -10442.6 21.2948 2.53882 0.0417554 
1.395 -2648.97 7761.4 -10410.4 21.3581 2.5265 0.0418174 
1.4 -2570.49 7809.69 -10380.2 21.4473 2.54222 0.0419036 
1.405 -2564.46 7790.08 -10354.5 21.5038 2.53583 0.0419829 
1.41 -2651.46 7678.66 -10330.1 21.5272 2.49957 0.0420768 
1.415 -2567.21 7755.89 -10323.1 21.5739 2.5247 0.0421309 
1.42 -2606.25 7706.39 -10312.6 21.5817 2.50859 0.042187 
1.425 -2643 7681.8 -10324.8 21.5471 2.50059 0.0422727 
1.43 -2593.25 7789.36 -10382.6 21.4479 2.5356 0.0423336 
1.435 -2557.46 7895.4 -10452.9 21.3143 2.57012 0.0423798 
1.44 -2639.88 7842.94 -10482.8 21.2199 2.55304 0.0424334 
1.445 -2550.5 7944.32 -10494.8 21.2242 2.58604 0.0424966 
1.45 -2586.24 7895.51 -10481.8 21.2395 2.57015 0.0425493 
1.455 -2557.78 7922.51 -10480.3 21.2536 2.57894 0.0426093 
1.46 -2535.33 7943.73 -10479.1 21.2663 2.58585 0.0426372 
1.465 -2475.45 7987.07 -10462.5 21.3216 2.59996 0.0426977 
1.47 -2461.14 7963.28 -10424.4 21.4075 2.59221 0.042795 
1.475 -2455.47 7891.41 -10346.9 21.5722 2.56882 0.0429226 
1.48 -2515.09 7759.78 -10274.9 21.7032 2.52597 0.0430911 
1.485 -2456.27 7772.7 -10229 21.8237 2.53018 0.0432322 
1.49 -2481.71 7765.48 -10247.2 21.7806 2.52783 0.0433371 
1.495 -2376.32 7914.65 -10291 21.7291 2.57638 0.0434042 
1.5 -2465.53 7867.26 -10332.8 21.6068 2.56096 0.0434176 
1.505 -2530 7825.25 -10355.3 21.5372 2.54728 0.0434359 
1.51 -2601.83 7750.33 -10352.2 21.5206 2.52289 0.0434746 
1.515 -2620.33 7713.18 -10333.5 21.5573 2.5108 0.0435042 
1.52 -2542.65 7767.69 -10310.3 21.6389 2.52855 0.0435539 
1.525 -2491.78 7794.33 -10286.1 21.714 2.53722 0.0435871 
1.53 -2504.9 7768.29 -10273.2 21.7423 2.52874 0.043664 
1.535 -2479.13 7804.82 -10283.9 21.7305 2.54063 0.0436947 
1.54 -2456.7 7843.87 -10300.6 21.7046 2.55334 0.0437625 
1.545 -2450.66 7880.84 -10331.5 21.6369 2.56538 0.0438164 
1.55 -2415.9 7906.34 -10322.2 21.6624 2.57368 0.0439364 
1.555 -2443.78 7871.23 -10315 21.6607 2.56225 0.0440167 
1.56 -2452.07 7846.84 -10298.9 21.6874 2.55431 0.0441366 
1.565 -2476.29 7795.56 -10271.9 21.7369 2.53762 0.0442497 
1.57 -2413.05 7839.46 -10252.5 21.8023 2.55191 0.0443435 
1.575 -2357.32 7829.44 -10186.8 21.9603 2.54865 0.0444394 
1.58 -2373.53 7772.16 -10145.7 22.041 2.53 0.0444931 
1.585 -2421.42 7696.56 -10118 22.0857 2.50539 0.0445336 
1.59 -2445.23 7675.19 -10120.4 22.0777 2.49843 0.0446133 
1.595 -2348.75 7796.03 -10144.8 22.0683 2.53777 0.0446704 
1.6 -2304.14 7846.15 -10150.3 22.0759 2.55409 0.0447286 
1.605 -2261.54 7885.62 -10147.2 22.0948 2.56693 0.044748 
1.61 -2329.01 7825.3 -10154.3 22.0491 2.5473 0.0447404 
1.615 -2297.35 7858.77 -10156.1 22.0499 2.55819 0.04468 
1.62 -2277.74 7904.16 -10181.9 21.9911 2.57297 0.0446105 
1.625 -2316.7 7865.76 -10182.5 21.9701 2.56047 0.0445889 
1.63 -2312.25 7897.15 -10209.4 21.9134 2.57069 0.0444968 
1.635 -2398.78 7851.43 -10250.2 21.7976 2.5558 0.044396 
1.64 -2435.36 7877.33 -10312.7 21.6545 2.56424 0.0442874 
1.645 -2466.95 7900.18 -10367.1 21.5319 2.57167 0.0442083 
1.65 -2500.09 7917.7 -10417.8 21.4137 2.57738 0.0440959 
1.655 -2452.34 7985.35 -10437.7 21.3853 2.5994 0.043967 
1.66 -2538.86 7909.28 -10448.1 21.3316 2.57463 0.0438565 
1.665 -2617.38 7840.51 -10457.9 21.2826 2.55225 0.0437707 
1.67 -2597.83 7858.08 -10455.9 21.2928 2.55797 0.0437159 
1.675 -2671.03 7766.21 -10437.2 21.3071 2.52806 0.0437033 
1.68 -2627.07 7797.15 -10424.2 21.3464 2.53814 0.0437248 
1.685 -2657.04 7747.12 -10404.2 21.3733 2.52185 0.0437328 
1.69 -2523.51 7875.52 -10399 21.4258 2.56365 0.0437 
1.695 -2653.45 7732.94 -10386.4 21.4005 2.51723 0.0436618 
1.7 -2626.63 7770.18 -10396.8 21.3815 2.52936 0.0436004 
1.705 -2666.81 7731.66 -10398.5 21.361 2.51682 0.043554 
1.71 -2653.87 7746.23 -10400.1 21.3623 2.52156 0.0435148 
1.715 -2709.44 7683.12 -10392.6 21.3566 2.50102 0.0434451 
1.72 -2723.92 7677.88 -10401.8 21.3287 2.49931 0.0433795 
1.725 -2778.1 7621.89 -10400 21.3126 2.48108 0.0434378 
